Energy (eV)    DOS (1/eV)    PDOS (1/eV)  of atom type Mo S  
 
     -2.56823    142.50380     43.60413     98.89967
     -2.55823    138.06081     42.55730     95.50351
     -2.54823    134.46235     41.73748     92.72487
     -2.53823    131.78207     41.25318     90.52889
     -2.52823    129.91641     41.08806     88.82836
     -2.51823    128.53696     41.08506     87.45190
     -2.50823    127.11823     40.99268     86.12555
     -2.49823    125.29494     40.63076     84.66418
     -2.48823    123.36140     40.09016     83.27124
     -2.47823    122.16926     39.70323     82.46603
     -2.46823    122.24471     39.73605     82.50867
     -2.45823    123.18588     40.16158     83.02430
     -2.44823    124.15338     40.77214     83.38123
     -2.43823    124.66572     41.38878     83.27694
     -2.42823    124.64085     41.87401     82.76684
     -2.41823    124.02901     42.08073     81.94829
     -2.40823    122.88045     41.96029     80.92016
     -2.39823    121.62605     41.68718     79.93887
     -2.38823    120.86154     41.55304     79.30850
     -2.37823    120.80588     41.72490     79.08098
     -2.36823    121.20998     42.16273     79.04725
     -2.35823    121.88084     42.76898     79.11186
     -2.34823    123.16683     43.57333     79.59350
     -2.33823    125.77909     44.75721     81.02188
     -2.32823    130.06914     46.50094     83.56821
     -2.31823    135.54179     48.80439     86.73740
     -2.30823    141.18286     51.45416     89.72871
     -2.29823    146.16139     54.11660     92.04479
     -2.28823    149.94736     56.36566     93.58169
     -2.27823    151.84060     57.64484     94.19575
     -2.26823    150.97526     57.43519     93.54008
     -2.25823    147.15578     55.65451     91.50127
     -2.24823    141.35773     52.82131     88.53642
     -2.23823    135.01076     49.68715     85.32361
     -2.22823    129.01121     46.75624     82.25497
     -2.21823    123.80098     44.24312     79.55786
     -2.20823    120.08567     42.33874     77.74693
     -2.19823    118.63430     41.22616     77.40814
     -2.18823    119.01241     40.74979     78.26261
     -2.17823    119.09416     40.27965     78.81452
     -2.16823    116.61990     39.14463     77.47527
     -2.15823    111.36955     37.23892     74.13063
     -2.14823    105.44004     35.11089     70.32915
     -2.13823    101.18805     33.40594     67.78211
     -2.12823     99.03017     32.25240     66.77778
     -2.11823     97.48042     31.27062     66.20980
     -2.10823     95.33311     30.20341     65.12970
     -2.09823     93.37232     29.38232     63.98999
     -2.08823     93.46942     29.37734     64.09209
     -2.07823     96.09675     30.20195     65.89480
     -2.06823     99.21948     31.04935     68.17013
     -2.05823     99.89281     30.92648     68.96634
     -2.04823     96.87806     29.52670     67.35136
     -2.03823     91.63757     27.45798     64.17959
     -2.02823     86.93099     25.68972     61.24127
     -2.01823     84.61757     24.83245     59.78513
     -2.00823     84.59688     24.81867     59.77820
     -1.99823     85.36870     25.07753     60.29117
     -1.98823     85.48756     25.02909     60.45847
     -1.97823     84.76507     24.56188     60.20319
     -1.96823     84.22254     24.06675     60.15580
     -1.95823     84.83846     23.96365     60.87482
     -1.94823     86.34349     24.20893     62.13455
     -1.93823     87.30224     24.30370     62.99854
     -1.92823     86.47234     23.80605     62.66628
     -1.91823     84.07877     22.81028     61.26849
     -1.90823     81.60078     21.85411     59.74667
     -1.89823     80.32762     21.36414     58.96348
     -1.88823     80.34270     21.28914     59.05356
     -1.87823     80.87628     21.28387     59.59241
     -1.86823     81.31555     21.13667     60.17887
     -1.85823     81.72694     20.94176     60.78517
     -1.84823     82.55733     20.89741     61.65991
     -1.83823     83.96682     21.02412     62.94270
     -1.82823     85.45752     21.12040     64.33712
     -1.81823     86.22489     20.97448     65.25041
     -1.80823     85.98901     20.58318     65.40583
     -1.79823     85.41449     20.15507     65.25942
     -1.78823     85.61590     19.94484     65.67106
     -1.77823     87.43259     20.15263     67.27996
     -1.76823     91.42128     21.00174     70.41954
     -1.75823     98.34755     22.83990     75.50764
     -1.74823    108.96661     25.98916     82.97746
     -1.73823    122.59535     30.27638     92.31897
     -1.72823    135.90526     34.65947    101.24580
     -1.71823    144.02204     37.55995    106.46209
     -1.70823    143.66510     37.84385    105.82125
     -1.69823    135.21965     35.51791     99.70175
     -1.68823    121.58188     31.45794     90.12394
     -1.67823    105.47099     26.63124     78.83976
     -1.66823     88.31399     21.69293     66.62106
     -1.65823     71.19085     17.10438     54.08648
     -1.64823     55.75261     13.27835     42.47425
     -1.63823     43.68237     10.47214     33.21023
     -1.62823     35.56713      8.64151     26.92562
     -1.61823     30.71063      7.50952     23.20111
     -1.60823     27.96266      6.78125     21.18141
     -1.59823     26.45761      6.27402     20.18359
     -1.58823     25.67928      5.89521     19.78407
     -1.57823     25.22525      5.57654     19.64872
     -1.56823     24.69827      5.25017     19.44810
     -1.55823     23.75470      4.85999     18.89471
     -1.54823     22.19099      4.37828     17.81271
     -1.53823     19.95135      3.80623     16.14512
     -1.52823     17.04063      3.15548     13.88514
     -1.51823     13.52077      2.44277     11.07800
     -1.50823      9.67256      1.71465      7.95790
     -1.49823      6.05347      1.05821      4.99527
     -1.48823      3.23312      0.55949      2.67363
     -1.47823      1.44734      0.24861      1.19873
     -1.46823      0.53642      0.09164      0.44479
     -1.45823      0.16324      0.02777      0.13547
     -1.44823      0.04056      0.00688      0.03368
     -1.43823      0.00819      0.00139      0.00681
     -1.42823      0.00134      0.00023      0.00112
     -1.41823      0.00018      0.00003      0.00015
     -1.40823      0.00002      0.00000      0.00002
     -1.39823      0.00000      0.00000      0.00000
     -1.38823      0.00000      0.00000      0.00000
     -1.37823      0.00000      0.00000      0.00000
     -1.36823      0.00000      0.00000      0.00000
     -1.35823      0.00003      0.00002      0.00001
     -1.34823      0.00026      0.00019      0.00007
     -1.33823      0.00200      0.00146      0.00054
     -1.32823      0.01221      0.00892      0.00329
     -1.31823      0.06067      0.04432      0.01635
     -1.30823      0.24578      0.17943      0.06635
     -1.29823      0.81538      0.59483      0.22055
     -1.28823      2.22879      1.62435      0.60445
     -1.27823      5.06130      3.68401      1.37729
     -1.26823      9.65675      7.01731      2.63944
     -1.25823     15.71982     11.39849      4.32133
     -1.24823     22.28425     16.11325      6.17100
     -1.23823     28.22837     20.33967      7.88870
     -1.22823     32.91086     23.61390      9.29696
     -1.21823     36.36723     25.97066     10.39657
     -1.20823     39.02531     27.73093     11.29439
     -1.19823     41.32628     29.22253     12.10374
     -1.18823     43.53986     30.64548     12.89438
     -1.17823     45.78008     32.08441     13.69566
     -1.16823     48.09269     33.57305     14.51963
     -1.15823     50.51274     35.13628     15.37646
     -1.14823     53.08083     36.80202     16.27881
     -1.13823     55.83680     38.59743     17.23937
     -1.12823     58.80128     40.53646     18.26482
     -1.11823     61.98059     42.62298     19.35761
     -1.10823     65.39740     44.87208     20.52532
     -1.09823     69.10280     47.31840     21.78440
     -1.08823     73.17662     50.01544     23.16118
     -1.07823     77.74195     53.04509     24.69686
     -1.06823     82.97124     56.52229     26.44896
     -1.05823     89.04740     60.57206     28.47534
     -1.04823     96.06574     65.27164     30.79410
     -1.03823    103.93834     70.59500     33.34334
     -1.02823    112.40453     76.41715     35.98738
     -1.01823    121.09008     82.52698     38.56310
     -1.00823    129.38384     88.49785     40.88598
     -0.99823    136.14178     93.45855     42.68323
     -0.98823    139.75848     96.17351     43.58497
     -0.97823    139.02819     95.71366     43.31452
     -0.96823    134.16588     92.22062     41.94526
     -0.95823    126.85185     86.92644     39.92541
     -0.94823    119.17801     81.36389     37.81412
     -0.93823    112.52387     76.54221     35.98165
     -0.92823    107.23488     72.72103     34.51384
     -0.91823    103.04151     69.71359     33.32791
     -0.90823     99.60794     67.27350     32.33444
     -0.89823     96.75450     65.25709     31.49741
     -0.88823     94.36014     63.56982     30.79033
     -0.87823     92.25145     62.09438     30.15707
     -0.86823     90.28232     60.73531     29.54701
     -0.85823     88.44686     59.48455     28.96231
     -0.84823     86.80043     58.36831     28.43212
     -0.83823     85.32396     57.36757     27.95639
     -0.82823     83.95161     56.44422     27.50739
     -0.81823     82.64543     55.58001     27.06541
     -0.80823     81.38286     54.75380     26.62906
     -0.79823     80.17344     53.96092     26.21251
     -0.78823     79.08627     53.25007     25.83620
     -0.77823     78.13144     52.63859     25.49285
     -0.76823     77.17448     52.03451     25.13998
     -0.75823     76.12812     51.36728     24.76084
     -0.74823     75.13091     50.72996     24.40094
     -0.73823     74.33873     50.23990     24.09882
     -0.72823     73.63665     49.82130     23.81535
     -0.71823     72.78889     49.30046     23.48843
     -0.70823     71.81505     48.68403     23.13102
     -0.69823     70.97492     48.16217     22.81275
     -0.68823     70.37422     47.81921     22.55501
     -0.67823     69.79631     47.49630     22.30001
     -0.66823     69.00460     47.01193     21.99267
     -0.65823     68.07881     46.42275     21.65606
     -0.64823     67.31839     45.95631     21.36207
     -0.63823     66.83530     45.69859     21.13671
     -0.62823     66.38065     45.45896     20.92168
     -0.61823     65.66387     45.01539     20.64848
     -0.60823     64.75871     44.42433     20.33438
     -0.59823     64.03061     43.96317     20.06743
     -0.58823     63.65737     43.76486     19.89251
     -0.57823     63.38765     43.63616     19.75148
     -0.56823     62.87169     43.30971     19.56198
     -0.55823     62.12811     42.79795     19.33016
     -0.54823     61.52701     42.38117     19.14583
     -0.53823     61.32704     42.25630     19.07075
     -0.52823     61.38441     42.31151     19.07289
     -0.51823     61.37387     42.29094     19.08293
     -0.50823     61.20689     42.11720     19.08969
     -0.49823     61.16362     41.99739     19.16623
     -0.48823     61.63655     42.22307     19.41348
     -0.47823     62.78836     42.90042     19.88794
     -0.46823     64.45343     43.87993     20.57350
     -0.45823     66.28202     44.89669     21.38533
     -0.44823     67.79080     45.65907     22.13173
     -0.43823     68.12431     45.70175     22.42256
     -0.42823     65.97939     44.28192     21.69747
     -0.41823     60.32532     40.77218     19.55313
     -0.40823     51.54232     35.36647     16.17585
     -0.39823     41.65746     29.27124     12.38622
     -0.38823     33.14619     24.00442      9.14177
     -0.37823     27.42136     20.45907      6.96229
     -0.36823     24.36386     18.57756      5.78630
     -0.35823     22.95126     17.71298      5.23829
     -0.34823     22.13617     17.18474      4.95143
     -0.33823     21.36370     16.63859      4.72510
     -0.32823     20.60452     16.08630      4.51821
     -0.31823     20.03116     15.67505      4.35611
     -0.30823     19.66402     15.42335      4.24067
     -0.29823     19.31613     15.18361      4.13252
     -0.28823     18.81871     14.82206      3.99665
     -0.27823     18.20377     14.36403      3.83974
     -0.26823     17.63478     13.93979      3.69500
     -0.25823     17.21072     13.62881      3.58191
     -0.24823     16.87853     13.38916      3.48938
     -0.23823     16.51257     13.12031      3.39226
     -0.22823     16.05013     12.77204      3.27809
     -0.21823     15.55226     12.39362      3.15864
     -0.20823     15.12927     12.07379      3.05548
     -0.19823     14.80536     11.83189      2.97347
     -0.18823     14.49173     11.59657      2.89516
     -0.17823     14.11313     11.30765      2.80548
     -0.16823     13.70888     10.99706      2.71181
     -0.15823     13.36011     10.73009      2.63002
     -0.14823     13.06683     10.50662      2.56021
     -0.13823     12.76672     10.27658      2.49014
     -0.12823     12.43759     10.02232      2.41527
     -0.11823     12.10309      9.76293      2.34017
     -0.10823     11.74909      9.48681      2.26228
     -0.09823     11.28063      9.11694      2.16369
     -0.08823     10.54247      8.52735      2.01512
     -0.07823      9.37045      7.58459      1.78585
     -0.06823      7.69568      6.23245      1.46323
     -0.05823      5.66663      4.59114      1.07549
     -0.04823      3.64231      2.95196      0.69035
     -0.03823      2.00055      1.62176      0.37879
     -0.02823      0.92405      0.74922      0.17483
     -0.01823      0.35475      0.28767      0.06708
     -0.00823      0.11223      0.09102      0.02121
      0.00177      0.02907      0.02358      0.00549
      0.01177      0.00614      0.00498      0.00116
      0.02177      0.00105      0.00085      0.00020
      0.03177      0.00015      0.00012      0.00003
      0.04177      0.00002      0.00001      0.00000
      0.05177      0.00000      0.00000      0.00000
      0.06177      0.00000      0.00000      0.00000
      0.07177      0.00000      0.00000      0.00000
      0.08177      0.00000      0.00000      0.00000
      0.09177      0.00000      0.00000      0.00000
      0.10177      0.00000      0.00000      0.00000
      0.11177      0.00000      0.00000      0.00000
      0.12177      0.00000      0.00000      0.00000
      0.13177      0.00000      0.00000      0.00000
      0.14177      0.00000      0.00000      0.00000
      0.15177      0.00000      0.00000      0.00000
      0.16177      0.00000      0.00000      0.00000
      0.17177      0.00000      0.00000      0.00000
      0.18177      0.00000      0.00000      0.00000
      0.19177      0.00000      0.00000      0.00000
      0.20177      0.00000      0.00000      0.00000
      0.21177      0.00000      0.00000      0.00000
      0.22177      0.00000      0.00000      0.00000
      0.23177      0.00000      0.00000      0.00000
      0.24177      0.00000      0.00000      0.00000
      0.25177      0.00000      0.00000      0.00000
      0.26177      0.00000      0.00000      0.00000
      0.27177      0.00000      0.00000      0.00000
      0.28177      0.00000      0.00000      0.00000
      0.29177      0.00000      0.00000      0.00000
      0.30177      0.00000      0.00000      0.00000
      0.31177      0.00000      0.00000      0.00000
      0.32177      0.00000      0.00000      0.00000
      0.33177      0.00000      0.00000      0.00000
      0.34177      0.00000      0.00000      0.00000
      0.35177      0.00000      0.00000      0.00000
      0.36177      0.00000      0.00000      0.00000
      0.37177      0.00000      0.00000      0.00000
      0.38177      0.00000      0.00000      0.00000
      0.39177      0.00000      0.00000      0.00000
      0.40177      0.00000      0.00000      0.00000
      0.41177      0.00000      0.00000      0.00000
      0.42177      0.00000      0.00000      0.00000
      0.43177      0.00000      0.00000      0.00000
      0.44177      0.00000      0.00000      0.00000
      0.45177      0.00000      0.00000      0.00000
      0.46177      0.00000      0.00000      0.00000
      0.47177      0.00000      0.00000      0.00000
      0.48177      0.00000      0.00000      0.00000
      0.49177      0.00000      0.00000      0.00000
      0.50177      0.00000      0.00000      0.00000
      0.51177      0.00000      0.00000      0.00000
      0.52177      0.00000      0.00000      0.00000
      0.53177      0.00000      0.00000      0.00000
      0.54177      0.00000      0.00000      0.00000
      0.55177      0.00000      0.00000      0.00000
      0.56177      0.00000      0.00000      0.00000
      0.57177      0.00000      0.00000      0.00000
      0.58177      0.00000      0.00000      0.00000
      0.59177      0.00000      0.00000      0.00000
      0.60177      0.00000      0.00000      0.00000
      0.61177      0.00000      0.00000      0.00000
      0.62177      0.00000      0.00000      0.00000
      0.63177      0.00000      0.00000      0.00000
      0.64177      0.00000      0.00000      0.00000
      0.65177      0.00000      0.00000      0.00000
      0.66177      0.00000      0.00000      0.00000
      0.67177      0.00000      0.00000      0.00000
      0.68177      0.00000      0.00000      0.00000
      0.69177      0.00000      0.00000      0.00000
      0.70177      0.00000      0.00000      0.00000
      0.71177      0.00000      0.00000      0.00000
      0.72177      0.00000      0.00000      0.00000
      0.73177      0.00000      0.00000      0.00000
      0.74177      0.00000      0.00000      0.00000
      0.75177      0.00000      0.00000      0.00000
      0.76177      0.00000      0.00000      0.00000
      0.77177      0.00000      0.00000      0.00000
      0.78177      0.00000      0.00000      0.00000
      0.79177      0.00000      0.00000      0.00000
      0.80177      0.00000      0.00000      0.00000
      0.81177      0.00000      0.00000      0.00000
      0.82177      0.00000      0.00000      0.00000
      0.83177      0.00000      0.00000      0.00000
      0.84177      0.00000      0.00000      0.00000
      0.85177      0.00000      0.00000      0.00000
      0.86177      0.00000      0.00000      0.00000
      0.87177      0.00000      0.00000      0.00000
      0.88177      0.00000      0.00000      0.00000
      0.89177      0.00000      0.00000      0.00000
      0.90177      0.00000      0.00000      0.00000
      0.91177      0.00000      0.00000      0.00000
      0.92177      0.00000      0.00000      0.00000
      0.93177      0.00000      0.00000      0.00000
      0.94177      0.00000      0.00000      0.00000
      0.95177      0.00000      0.00000      0.00000
      0.96177      0.00000      0.00000      0.00000
      0.97177      0.00000      0.00000      0.00000
      0.98177      0.00000      0.00000      0.00000
      0.99177      0.00000      0.00000      0.00000
      1.00177      0.00000      0.00000      0.00000
      1.01177      0.00000      0.00000      0.00000
      1.02177      0.00000      0.00000      0.00000
      1.03177      0.00000      0.00000      0.00000
      1.04177      0.00000      0.00000      0.00000
      1.05177      0.00000      0.00000      0.00000
      1.06177      0.00000      0.00000      0.00000
      1.07177      0.00000      0.00000      0.00000
      1.08177      0.00000      0.00000      0.00000
      1.09177      0.00000      0.00000      0.00000
      1.10177      0.00000      0.00000      0.00000
      1.11177      0.00000      0.00000      0.00000
      1.12177      0.00000      0.00000      0.00000
      1.13177      0.00000      0.00000      0.00000
      1.14177      0.00000      0.00000      0.00000
      1.15177      0.00000      0.00000      0.00000
      1.16177      0.00000      0.00000      0.00000
      1.17177      0.00000      0.00000      0.00000
      1.18177      0.00000      0.00000      0.00000
      1.19177      0.00000      0.00000      0.00000
      1.20177      0.00000      0.00000      0.00000
      1.21177      0.00000      0.00000      0.00000
      1.22177      0.00000      0.00000      0.00000
      1.23177      0.00000      0.00000      0.00000
      1.24177      0.00000      0.00000      0.00000
      1.25177      0.00000      0.00000      0.00000
      1.26177      0.00000      0.00000      0.00000
      1.27177      0.00000      0.00000      0.00000
      1.28177      0.00000      0.00000      0.00000
      1.29177      0.00000      0.00000      0.00000
      1.30177      0.00000      0.00000      0.00000
      1.31177      0.00000      0.00000      0.00000
      1.32177      0.00000      0.00000      0.00000
      1.33177      0.00000      0.00000      0.00000
      1.34177      0.00000      0.00000      0.00000
      1.35177      0.00000      0.00000      0.00000
      1.36177      0.00000      0.00000      0.00000
      1.37177      0.00000      0.00000      0.00000
      1.38177      0.00000      0.00000      0.00000
      1.39177      0.00000      0.00000      0.00000
      1.40177      0.00000      0.00000      0.00000
      1.41177      0.00000      0.00000      0.00000
      1.42177      0.00000      0.00000      0.00000
      1.43177      0.00000      0.00000      0.00000
      1.44177      0.00000      0.00000      0.00000
      1.45177      0.00000      0.00000      0.00000
      1.46177      0.00000      0.00000      0.00000
      1.47177      0.00000      0.00000      0.00000
      1.48177      0.00000      0.00000      0.00000
      1.49177      0.00000      0.00000      0.00000
      1.50177      0.00000      0.00000      0.00000
      1.51177      0.00000      0.00000      0.00000
      1.52177      0.00000      0.00000      0.00000
      1.53177      0.00000      0.00000      0.00000
      1.54177      0.00000      0.00000      0.00000
      1.55177      0.00000      0.00000      0.00000
      1.56177      0.00000      0.00000      0.00000
      1.57177      0.00000      0.00000      0.00000
      1.58177      0.00000      0.00000      0.00000
      1.59177      0.00000      0.00000      0.00000
      1.60177      0.00000      0.00000      0.00000
      1.61177      0.00000      0.00000      0.00000
      1.62177      0.00000      0.00000      0.00000
      1.63177      0.00000      0.00000      0.00000
      1.64177      0.00000      0.00000      0.00000
      1.65177      0.00000      0.00000      0.00000
      1.66177      0.00000      0.00000      0.00000
      1.67177      0.00000      0.00000      0.00000
      1.68177      0.00000      0.00000      0.00000
      1.69177      0.00000      0.00000      0.00000
      1.70177      0.00000      0.00000      0.00000
      1.71177      0.00000      0.00000      0.00000
      1.72177      0.00000      0.00000      0.00000
      1.73177      0.00000      0.00000      0.00000
      1.74177      0.00000      0.00000      0.00000
      1.75177      0.00000      0.00000      0.00000
      1.76177      0.00000      0.00000      0.00000
      1.77177      0.00000      0.00000      0.00000
      1.78177      0.00000      0.00000      0.00000
      1.79177      0.00000      0.00000      0.00000
      1.80177      0.00000      0.00000      0.00000
      1.81177      0.00000      0.00000      0.00000
      1.82177      0.00000      0.00000      0.00000
      1.83177      0.00000      0.00000      0.00000
      1.84177      0.00000      0.00000      0.00000
      1.85177      0.00000      0.00000      0.00000
      1.86177      0.00000      0.00000      0.00000
      1.87177      0.00000      0.00000      0.00000
      1.88177      0.00000      0.00000      0.00000
      1.89177      0.00000      0.00000      0.00000
      1.90177      0.00000      0.00000      0.00000
      1.91177      0.00000      0.00000      0.00000
      1.92177      0.00000      0.00000      0.00000
      1.93177      0.00000      0.00000      0.00000
      1.94177      0.00000      0.00000      0.00000
      1.95177      0.00000      0.00000      0.00000
      1.96177      0.00000      0.00000      0.00000
      1.97177      0.00000      0.00000      0.00000
      1.98177      0.00000      0.00000      0.00000
      1.99177      0.00000      0.00000      0.00000
      2.00177      0.00000      0.00000      0.00000
      2.01177      0.00000      0.00000      0.00000
      2.02177      0.00000      0.00000      0.00000
      2.03177      0.00000      0.00000      0.00000
      2.04177      0.00000      0.00000      0.00000
      2.05177      0.00000      0.00000      0.00000
      2.06177      0.00000      0.00000      0.00000
      2.07177      0.00000      0.00000      0.00000
      2.08177      0.00000      0.00000      0.00000
      2.09177      0.00000      0.00000      0.00000
      2.10177      0.00000      0.00000      0.00000
      2.11177      0.00000      0.00000      0.00000
      2.12177      0.00000      0.00000      0.00000
      2.13177      0.00000      0.00000      0.00000
      2.14177      0.00000      0.00000      0.00000
      2.15177      0.00000      0.00000      0.00000
      2.16177      0.00000      0.00000      0.00000
      2.17177      0.00000      0.00000      0.00000
      2.18177      0.00000      0.00000      0.00000
      2.19177      0.00000      0.00000      0.00000
      2.20177      0.00000      0.00000      0.00000
      2.21177      0.00000      0.00000      0.00000
      2.22177      0.00000      0.00000      0.00000
      2.23177      0.00001      0.00000      0.00000
      2.24177      0.00009      0.00005      0.00005
      2.25177      0.00082      0.00040      0.00043
      2.26177      0.00581      0.00280      0.00301
      2.27177      0.03325      0.01603      0.01722
      2.28177      0.15491      0.07468      0.08023
      2.29177      0.58921      0.28402      0.30519
      2.30177      1.83827      0.88598      0.95229
      2.31177      4.73402      2.28125      2.45277
      2.32177     10.15044      4.89032      5.26012
      2.33177     18.33749      8.83244      9.50505
      2.34177     28.36909     13.66039     14.70871
      2.35177     38.40205     18.48761     19.91444
      2.36177     46.72996     22.50136     24.22859
      2.37177     52.72144     25.42274     27.29870
      2.38177     56.87634     27.53914     29.33720
      2.39177     60.17792     29.38147     30.79645
      2.40177     63.41694     31.36307     32.05387
      2.41177     66.89450     33.59630     33.29820
      2.42177     70.49960     35.92831     34.57129
      2.43177     73.97023     38.12006     35.85017
      2.44177     77.13180     40.02561     37.10620
      2.45177     79.99234     41.65594     38.33640
      2.46177     82.70244     43.12791     39.57453
      2.47177     85.45847     44.58091     40.87756
      2.48177     88.41441     46.12009     42.29432
      2.49177     91.65185     47.79758     43.85427
      2.50177     95.24854     49.64463     45.60391
      2.51177     99.39690     51.74216     47.65473
      2.52177    104.39987     54.23546     50.16440
      2.53177    110.41354     57.20781     53.20573
      2.54177    117.06407     60.49039     56.57368
      2.55177    123.27450     63.59515     59.67935
      2.56177    127.54520     65.86128     61.68392
      2.57177    128.63943     66.75248     61.88695
      2.58177    126.33506     66.16794     60.16712
      2.59177    121.71106     64.57363     57.13744
      2.60177    116.58961     62.77834     53.81128
      2.61177    112.44107     61.44995     50.99112
      2.62177    109.69848     60.79160     48.90688
      2.63177    108.07391     60.67805     47.39586
      2.64177    107.33369     61.01701     46.31669
      2.65177    107.55740     61.86829     45.68911
      2.66177    108.80089     63.28074     45.52015
      2.67177    110.94111     65.22828     45.71283
      2.68177    114.02803     67.79481     46.23322
      2.69177    118.52080     71.27794     47.24285
      2.70177    124.81465     75.90288     48.91177
      2.71177    132.37536     81.31904     51.05632
      2.72177    139.38760     86.38866     52.99894
      2.73177    143.46447     89.60575     53.85872
      2.74177    143.00492     89.92747     53.07745
      2.75177    138.12063     87.37242     50.74821
      2.76177    130.44084     82.94552     47.49532
      2.77177    122.15862     78.06978     44.08885
      2.78177    115.17656     74.01254     41.16401
      2.79177    110.77915     71.59698     39.18216
      2.80177    109.65134     71.18252     38.46882
      2.81177    111.87261     72.72762     39.14499
      2.82177    116.78957     75.79686     40.99271
      2.83177    123.08517     79.61347     43.47171
      2.84177    129.31789     83.32829     45.98960
      2.85177    134.65025     86.41621     48.23404
      2.86177    139.18914     88.90641     50.28273
      2.87177    143.67755     91.24755     52.43000
      2.88177    148.84900     93.91296     54.93605
      2.89177    155.14458     97.17334     57.97124
      2.90177    163.07097    101.28658     61.78439
      2.91177    173.37919    106.64489     66.73429
      2.92177    186.17930    113.32384     72.85547
      2.93177    199.66648    120.40843     79.25805
      2.94177    210.17097    126.03941     84.13156
      2.95177    214.14292    128.44373     85.69919
      2.96177    210.59894    127.15211     83.44683
      2.97177    201.77570    123.30694     78.46876
      2.98177    191.35884    118.76959     72.58925
      2.99177    182.07455    114.90282     67.17173
      3.00177    174.74866    112.08836     62.66030
      3.01177    169.00596    110.08169     58.92427
      3.02177    164.26311    108.50635     55.75676
      3.03177    159.94275    106.89895     53.04380
      3.04177    154.98924    104.34533     50.64391
      3.05177    147.70257     99.39973     48.30284
      3.06177    136.77982     90.97304     45.80678
      3.07177    122.88760     79.66542     43.22218
      3.08177    108.86346     67.94956     40.91390
      3.09177     98.03508     58.70664     39.32843
      3.10177     92.53743     53.67927     38.85816
      3.11177     93.22835     53.30189     39.92646
      3.12177    100.38318     57.37526     43.00793
      3.13177    113.61042     65.29355     48.31687
      3.14177    131.14941     75.74702     55.40238
      3.15177    149.91222     86.77223     63.13999
      3.16177    166.56995     96.40344     70.16651
      3.17177    178.57726    103.26154     75.31572
      3.18177    184.47464    106.65397     77.82067
      3.19177    184.00014    106.52884     77.47130
      3.20177    178.33529    103.56780     74.76750
      3.21177    169.88522     99.10296     70.78226
      3.22177    161.26618     94.59263     66.67355
      3.23177    154.19068     90.98773     63.20296
      3.24177    149.04946     88.47820     60.57126
      3.25177    145.29263     86.72572     58.56691
      3.26177    142.19985     85.33498     56.86488
      3.27177    139.40521     84.16508     55.24013
      3.28177    136.70671     83.20565     53.50107
      3.29177    133.54012     82.24547     51.29465
      3.30177    129.09868     80.89370     48.20498
      3.31177    123.22658     79.02541     44.20117
      3.32177    116.92578     77.02963     39.89615
      3.33177    111.67993     75.48052     36.19941
      3.34177    108.35728     74.66836     33.68892
      3.35177    106.83313     74.50242     32.33070
      3.36177    106.42669     74.71434     31.71236
      3.37177    106.56777     75.10804     31.45973
      3.38177    107.22798     75.76034     31.46764
      3.39177    108.81343     76.99390     31.81953
      3.40177    111.53129     78.99516     32.53613
      3.41177    114.85057     81.43002     33.42055
      3.42177    117.68917     83.54252     34.14664
      3.43177    119.11206     84.63494     34.47712
      3.44177    118.81685     84.42372     34.39314
      3.45177    117.10137     83.05424     34.04712
      3.46177    114.51695     80.90980     33.60715
      3.47177    111.51703     78.38613     33.13090
      3.48177    108.34531     75.76025     32.58505
      3.49177    105.17001     73.19864     31.97137
      3.50177    102.20940     70.82119     31.38821
      3.51177     99.72337     68.75148     30.97189
      3.52177     97.95870     67.13513     30.82357
      3.53177     96.99359     66.03893     30.95466
      3.54177     96.48261     65.25843     31.22418
      3.55177     95.72835     64.34862     31.37974
      3.56177     94.29623     63.01807     31.27816
      3.57177     92.56770     61.48137     31.08633
      3.58177     91.57950     60.34006     31.23944
      3.59177     92.33109     60.11333     32.21776
      3.60177     95.22483     60.87682     34.34800
      3.61177    100.04043     62.30994     37.73048
      3.62177    106.30318     64.06454     42.23864
      3.63177    113.54004     66.04169     47.49835
      3.64177    121.19897     68.29070     52.90826
      3.65177    128.60720     70.75449     57.85272
      3.66177    135.20539     73.20670     61.99870
      3.67177    140.73812     75.36715     65.37096
      3.68177    145.22547     77.05134     68.17413
      3.69177    148.83885     78.26673     70.57212
      3.70177    151.57906     79.08891     72.49015
      3.71177    152.85363     79.36043     73.49321
      3.72177    151.60436     78.63700     72.96736
      3.73177    147.12427     76.53920     70.58507
      3.74177    139.76561     73.12442     66.64119
      3.75177    130.94155     68.96012     61.98143
      3.76177    122.50214     64.89218     57.60996
      3.77177    115.82937     61.61415     54.21522
      3.78177    111.24167     59.32715     51.91452
      3.79177    108.15866     57.78110     50.37755
      3.80177    105.67805     56.54937     49.12868
      3.81177    103.02978     55.24184     47.78794
      3.82177     99.94447     53.68229     46.26218
      3.83177     96.88218     52.05744     44.82474
      3.84177     94.65027     50.78242     43.86785
      3.85177     93.55273     50.08332     43.46941
      3.86177     92.99681     49.73415     43.26266
      3.87177     92.00795     49.24360     42.76435
      3.88177     90.11431     48.30444     41.80987
      3.89177     87.79149     47.08661     40.70488
      3.90177     86.05869     46.08749     39.97120
      3.91177     85.52501     45.65311     39.87190
      3.92177     85.78725     45.64683     40.14041
      3.93177     85.81313     45.60048     40.21265
      3.94177     84.87989     45.14482     39.73506
      3.95177     83.11831     44.28284     38.83547
      3.96177     81.33867     43.35460     37.98407
      3.97177     80.46751     42.80617     37.66133
      3.98177     80.89189     42.87019     38.02170
      3.99177     82.03210     43.32472     38.70738
      4.00177     82.63130     43.58349     39.04781
      4.01177     81.66527     43.09282     38.57244
      4.02177     78.96901     41.64569     37.32332
      4.03177     75.08096     39.38203     35.69893
      4.04177     70.79457     36.65482     34.13976
      4.05177     66.82086     33.90154     32.91932
      4.06177     63.40798     31.42761     31.98037
      4.07177     60.17296     29.22867     30.94429
      4.08177     56.68689     27.17127     29.51562
      4.09177     53.27065     25.35972     27.91093
      4.10177     50.88478     24.15598     26.72880
      4.11177     50.25733     23.83095     26.42638
      4.12177     51.26520     24.28245     26.98275
      4.13177     52.90034     25.01402     27.88631
      4.14177     53.74469     25.36499     28.37970
      4.15177     52.95777     24.96885     27.98892
      4.16177     51.05545     24.08921     26.96624
      4.17177     49.46249     23.38626     26.07623
      4.18177     49.22170     23.31559     25.90611
      4.19177     50.24750     23.79974     26.44777
      4.20177     51.61164     24.38955     27.22210
      4.21177     52.29495     24.63673     27.65822
      4.22177     51.86060     24.39367     27.46693
      4.23177     50.71995     23.88653     26.83342
      4.24177     49.75915     23.50572     26.25343
      4.25177     49.59289     23.47823     26.11466
      4.26177     50.15553     23.73124     26.42429
      4.27177     50.94467     24.04186     26.90281
      4.28177     51.50148     24.24856     27.25292
      4.29177     51.64151     24.31046     27.33105
      4.30177     51.42433     24.25348     27.17085
      4.31177     51.06892     24.13622     26.93270
      4.32177     50.86096     24.05182     26.80914
      4.33177     51.01346     24.10195     26.91151
      4.34177     51.53814     24.32822     27.20992
      4.35177     52.22438     24.65899     27.56540
      4.36177     52.76886     24.94398     27.82487
      4.37177     53.00530     25.07887     27.92643
      4.38177     53.04328     25.10426     27.93903
      4.39177     53.15476     25.16292     27.99185
      4.40177     53.53667     25.36631     28.17036
      4.41177     54.19477     25.71566     28.47910
      4.42177     54.98921     26.12734     28.86187
      4.43177     55.75464     26.51462     29.24002
      4.44177     56.43370     26.86320     29.57050
      4.45177     57.13783     27.24429     29.89354
      4.46177     58.07086     27.75693     30.31393
      4.47177     59.39049     28.46472     30.92578
      4.48177     61.14086     29.38756     31.75330
      4.49177     63.30869     30.54030     32.76838
      4.50177     65.91286     31.95379     33.95907
      4.51177     68.89616     33.58808     35.30808
      4.52177     71.75802     35.14804     36.60998
      4.53177     73.40121     36.03881     37.36240
      4.54177     72.70364     35.67997     37.02367
      4.55177     69.42545     33.96059     35.46486
      4.56177     64.45497     31.34720     33.10777
      4.57177     59.12392     28.52681     30.59711
      4.58177     54.36458     25.97689     28.38769
      4.59177     50.44919     23.83455     26.61464
      4.60177     47.26462     22.04460     25.22002
      4.61177     44.68002     20.55564     24.12438
      4.62177     42.75867     19.42083     23.33785
      4.63177     41.75779     18.77756     22.98022
      4.64177     41.92607     18.73698     23.18909
      4.65177     43.29062     19.28866     24.00195
      4.66177     45.67163     20.32323     25.34840
      4.67177     48.86516     21.73117     27.13399
      4.68177     52.75443     23.45983     29.29459
      4.69177     57.28226     25.49429     31.78797
      4.70177     62.37306     27.80743     34.56563
      4.71177     67.90344     30.33774     37.56570
      4.72177     73.80810     33.04240     40.76570
      4.73177     80.29389     36.00550     44.28840
      4.74177     87.95972     39.49472     48.46500
      4.75177     97.62849     43.87673     53.75176
      4.76177    109.88709     49.40435     60.48274
      4.77177    124.45167     55.94287     68.50880
      4.78177    139.55211     62.71542     76.83669
      4.79177    151.84383     68.26926     83.57456
      4.80177    157.51386     70.94671     86.56715
      4.81177    154.31758     69.76038     84.55721
      4.82177    142.95759     64.99679     77.96081
      4.83177    126.59752     58.02035     68.57717
      4.84177    109.15022     50.53895     58.61127
      4.85177     93.75454     43.93529     49.81925
      4.86177     82.05381     38.93812     43.11569
